         T[K]      VP[Mpa]     LDN[gcc] Hvap[kJ/mol]
       240.25     0.000081     0.745505    41.419487
       246.59     0.000137     0.741443    41.092704
       252.93     0.000225     0.737343    40.761945
       259.27     0.000360     0.733202    40.427079
       265.60     0.000560     0.729021    40.087968
       271.94     0.000849     0.724797    39.744466
       278.28     0.001260     0.720529    39.396416
       284.61     0.001831     0.716215    39.043657
       290.95     0.002608     0.711854    38.686014
       297.29     0.003648     0.707444    38.323303
       303.62     0.005017     0.702983    37.955328
       309.96     0.006793     0.698468    37.581881
       316.30     0.009064     0.693898    37.202740
       322.63     0.011929     0.689271    36.817668
       328.97     0.015501     0.684583    36.426411
       335.31     0.019904     0.679833    36.028697
       341.64     0.025274     0.675016    35.624234
       347.98     0.031759     0.670131    35.212710
       354.32     0.039520     0.665174    34.793786
       360.65     0.048728     0.660141    34.367097
       366.99     0.059567     0.655028    33.932248
       373.33     0.072230     0.649831    33.488809
       379.67     0.086922     0.644546    33.036313
       386.00     0.103858     0.639167    32.574252
       392.34     0.123262     0.633689    32.102067
       398.68     0.145370     0.628105    31.619144
       405.01     0.170425     0.622410    31.124810
       411.35     0.198680     0.616595    30.618316
       417.69     0.230398     0.610652    30.098831
       424.02     0.265850     0.604572    29.565431
       430.36     0.305319     0.598345    29.017075
       436.70     0.349095     0.591958    28.452593
       443.03     0.397479     0.585399    27.870658
       449.37     0.450784     0.578652    27.269755
       455.71     0.509334     0.571699    26.648143
       462.04     0.573463     0.564521    26.003806
       468.38     0.643522     0.557092    25.334389
       474.72     0.719873     0.549385    24.637113
       481.05     0.802895     0.541366    23.908659
       487.39     0.892984     0.532994    23.145017
       493.73     0.990553     0.524218    22.341264
       500.07     1.096037     0.514974    21.491248
       506.40     1.209890     0.505180    20.587122
       512.74     1.332593     0.494730    19.618616
       519.08     1.464650     0.483477    18.571863
       525.41     1.606595     0.471214    17.427371
       531.75     1.758992     0.457633    16.156277
       538.09     1.922438     0.442234    14.712635
       544.42     2.097566     0.424124    13.015142
       550.76     2.285050     0.401374    10.892527
