         T[K]      VP[Mpa]     LDN[gcc] Hvap[kJ/mol]
       281.39     0.000004     0.757881    61.631595
       288.81     0.000008     0.752772    61.134879
       296.22     0.000015     0.747625    60.632208
       303.64     0.000028     0.742437    60.123385
       311.06     0.000050     0.737208    59.608204
       318.48     0.000085     0.731936    59.086448
       325.89     0.000142     0.726620    58.557885
       333.31     0.000230     0.721258    58.022273
       340.73     0.000363     0.715849    57.479352
       348.15     0.000558     0.710390    56.928848
       355.56     0.000839     0.704879    56.370471
       362.98     0.001235     0.699315    55.803910
       370.40     0.001782     0.693695    55.228835
       377.82     0.002525     0.688017    54.644892
       385.23     0.003518     0.682279    54.051707
       392.65     0.004823     0.676477    53.448873
       400.07     0.006514     0.670609    52.835959
       407.48     0.008676     0.664671    52.212498
       414.90     0.011406     0.658661    51.577988
       422.32     0.014812     0.652575    50.931886
       429.74     0.019016     0.646409    50.273607
       437.15     0.024153     0.640158    49.602513
       444.57     0.030370     0.633818    48.917912
       451.99     0.037827     0.627383    48.219047
       459.41     0.046699     0.620849    47.505091
       466.82     0.057172     0.614209    46.775136
       474.24     0.069446     0.607456    46.028180
       481.66     0.083735     0.600583    45.263118
       489.08     0.100265     0.593582    44.478718
       496.49     0.119276     0.586444    43.673611
       503.91     0.141022     0.579157    42.846258
       511.33     0.165770     0.571710    41.994929
       518.75     0.193800     0.564091    41.117660
       526.16     0.225409     0.556283    40.212212
       533.58     0.260907     0.548270    39.276015
       541.00     0.300623     0.540031    38.306092
       548.41     0.344900     0.531543    37.298968
       555.83     0.394100     0.522777    36.250543
       563.25     0.448606     0.513700    35.155927
       570.67     0.508820     0.504272    34.009212
       578.08     0.575170     0.494443    32.803150
       585.50     0.648104     0.484150    31.528693
       592.92     0.728103     0.473314    30.174308
       600.34     0.815674     0.461831    28.724916
       607.75     0.911356     0.449558    27.160173
       615.17     1.015727     0.436296    25.451522
       622.59     1.129401     0.421746    23.556727
       630.01     1.253035     0.405432    21.408672
       637.42     1.387335     0.386501    18.888818
       644.84     1.533057     0.363134    15.748142
