         T[K]      VP[Mpa]     LDN[gcc] Hvap[kJ/mol]
       308.80     0.000001     0.762088    78.722667
       316.96     0.000001     0.756797    78.009858
       325.11     0.000003     0.751467    77.289233
       333.27     0.000006     0.746097    76.560543
       341.43     0.000011     0.740685    75.823527
       349.59     0.000020     0.735230    75.077908
       357.75     0.000036     0.729730    74.323394
       365.90     0.000063     0.724184    73.559677
       374.06     0.000106     0.718590    72.786431
       382.22     0.000172     0.712946    72.003310
       390.38     0.000274     0.707250    71.209945
       398.54     0.000425     0.701501    70.405949
       406.69     0.000645     0.695694    69.590903
       414.85     0.000958     0.689830    68.764368
       423.01     0.001395     0.683904    67.925868
       431.17     0.001994     0.677915    67.074899
       439.33     0.002801     0.671858    66.210918
       447.48     0.003873     0.665732    65.333344
       455.64     0.005274     0.659532    64.441550
       463.80     0.007081     0.653256    63.534862
       471.96     0.009382     0.646898    62.612548
       480.12     0.012277     0.640456    61.673820
       488.27     0.015878     0.633923    60.717819
       496.43     0.020312     0.627295    59.743608
       504.59     0.025717     0.620567    58.750166
       512.75     0.032246     0.613731    57.736373
       520.91     0.040066     0.606782    56.700998
       529.06     0.049355     0.599712    55.642680
       537.22     0.060309     0.592512    54.559913
       545.38     0.073134     0.585173    53.451019
       553.54     0.088053     0.577685    52.314124
       561.70     0.105300     0.570036    51.147117
       569.85     0.125125     0.562212    49.947615
       578.01     0.147791     0.554198    48.712906
       586.17     0.173577     0.545976    47.439883
       594.33     0.202773     0.537527    46.124961
       602.49     0.235689     0.528826    44.763964
       610.64     0.272646     0.519844    43.351984
       618.80     0.313986     0.510549    41.883186
       626.96     0.360065     0.500899    40.350544
       635.12     0.411259     0.490845    38.745476
       643.28     0.467965     0.480322    37.057314
       651.43     0.530600     0.469252    35.272522
       659.59     0.599605     0.457528    33.373496
       667.75     0.675446     0.445008    31.336620
       675.91     0.758616     0.431489    29.128968
       684.07     0.849640     0.416672    26.702205
       692.22     0.949074     0.400076    23.980219
       700.38     1.057510     0.380841    20.830080
       708.54     1.175581     0.357134    16.976637
