         T[K]      VP[Mpa]     LDN[gcc] Hvap[kJ/mol]
       243.44     0.000036     0.745673    44.508383
       249.84     0.000064     0.740794    44.169127
       256.25     0.000110     0.735876    43.825651
       262.66     0.000182     0.730920    43.477814
       269.06     0.000293     0.725923    43.125468
       275.47     0.000459     0.720885    42.768455
       281.87     0.000702     0.715802    42.406611
       288.28     0.001049     0.710675    42.039759
       294.68     0.001535     0.705501    41.667713
       301.09     0.002203     0.700279    41.290276
       307.50     0.003105     0.695006    40.907237
       313.90     0.004301     0.689680    40.518374
       320.31     0.005866     0.684300    40.123448
       326.71     0.007882     0.678864    39.722203
       333.12     0.010447     0.673367    39.314368
       339.53     0.013669     0.667809    38.899651
       345.93     0.017670     0.662186    38.477737
       352.34     0.022585     0.656495    38.048291
       358.74     0.028563     0.650733    37.610947
       365.15     0.035766     0.644896    37.165313
       371.56     0.044369     0.638981    36.710964
       377.96     0.054561     0.632983    36.247437
       384.37     0.066540     0.626897    35.774229
       390.77     0.080522     0.620720    35.290790
       397.18     0.096731     0.614444    34.796518
       403.58     0.115404     0.608065    34.290753
       409.99     0.136788     0.601576    33.772764
       416.40     0.161144     0.594969    33.241745
       422.80     0.188740     0.588236    32.696797
       429.21     0.219857     0.581369    32.136920
       435.61     0.254787     0.574357    31.560989
       442.02     0.293829     0.567188    30.967735
       448.43     0.337296     0.559850    30.355722
       454.83     0.385509     0.552328    29.723305
       461.24     0.438803     0.544605    29.068598
       467.64     0.497521     0.536660    28.389411
       474.05     0.562020     0.528471    27.683184
       480.46     0.632671     0.520011    26.946894
       486.86     0.709855     0.511246    26.176931
       493.27     0.793970     0.502137    25.368923
       499.67     0.885430     0.492635    24.517500
       506.08     0.984663     0.482680    23.615944
       512.48     1.092120     0.472192    22.655677
       518.89     1.208268     0.461070    21.625455
       525.30     1.333596     0.449175    20.510072
       531.70     1.468620     0.436310    19.288118
       538.11     1.613876     0.422183    17.927829
       544.51     1.769933     0.406327    16.378525
       550.92     1.937388     0.387905    14.550267
       557.33     2.116869     0.365131    12.252900
