         T[K]      VP[Mpa]     LDN[gcc] Hvap[kJ/mol]
       213.74     0.000164     0.721358    34.342572
       219.33     0.000266     0.716822    34.083517
       224.92     0.000419     0.712249    33.821220
       230.52     0.000644     0.707639    33.555570
       236.11     0.000967     0.702989    33.286455
       241.70     0.001423     0.698299    33.013753
       247.29     0.002052     0.693567    32.737337
       252.88     0.002905     0.688791    32.457070
       258.48     0.004043     0.683970    32.172811
       264.07     0.005537     0.679102    31.884406
       269.66     0.007471     0.674185    31.591694
       275.25     0.009940     0.669217    31.294502
       280.84     0.013052     0.664197    30.992646
       286.44     0.016930     0.659122    30.685931
       292.03     0.021709     0.653989    30.374145
       297.62     0.027536     0.648796    30.057064
       303.21     0.034574     0.643541    29.734447
       308.80     0.042997     0.638220    29.406032
       314.40     0.052991     0.632830    29.071540
       319.99     0.064755     0.627368    28.730667
       325.58     0.078500     0.621830    28.383085
       331.17     0.094445     0.616212    28.028436
       336.76     0.112820     0.610510    27.666334
       342.36     0.133864     0.604719    27.296353
       347.95     0.157825     0.598833    26.918029
       353.54     0.184958     0.592847    26.530852
       359.13     0.215526     0.586754    26.134258
       364.72     0.249799     0.580548    25.727624
       370.32     0.288053     0.574220    25.310256
       375.91     0.330571     0.567762    24.881382
       381.50     0.377645     0.561164    24.440132
       387.09     0.429574     0.554415    23.985526
       392.68     0.486663     0.547502    23.516454
       398.27     0.549230     0.540411    23.031646
       403.87     0.617603     0.533126    22.529642
       409.46     0.692122     0.525627    22.008749
       415.05     0.773143     0.517891    21.466989
       420.64     0.861038     0.509894    20.902022
       426.23     0.956201     0.501601    20.311055
       431.83     1.059048     0.492976    19.690705
       437.42     1.170025     0.483972    19.036815
       443.01     1.289609     0.474528    18.344185
       448.60     1.418312     0.464569    17.606170
       454.19     1.556692     0.453997    16.814060
       459.79     1.705355     0.442676    15.956072
       465.38     1.864963     0.430416    15.015612
       470.97     2.036243     0.416934    13.968046
       476.56     2.219995     0.401776    12.774065
       482.15     2.417103     0.384131    11.363884
       487.75     2.628548     0.362267     9.589938
