         T[K]      VP[Mpa]     LDN[gcc] Hvap[kJ/mol]
       247.41     0.023316     0.639519    24.589977
       251.04     0.027714     0.635875    24.406050
       254.66     0.032760     0.632201    24.219853
       258.29     0.038522     0.628495    24.031312
       261.92     0.045071     0.624757    23.840348
       265.54     0.052482     0.620985    23.646878
       269.17     0.060830     0.617178    23.450813
       272.80     0.070198     0.613335    23.252060
       276.42     0.080669     0.609455    23.050521
       280.05     0.092328     0.605536    22.846092
       283.68     0.105265     0.601577    22.638660
       287.30     0.119572     0.597576    22.428108
       290.93     0.135342     0.593531    22.214310
       294.56     0.152670     0.589441    21.997131
       298.18     0.171656     0.585304    21.776428
       301.81     0.192398     0.581117    21.552047
       305.44     0.214999     0.576879    21.323823
       309.06     0.239561     0.572587    21.091578
       312.69     0.266189     0.568238    20.855123
       316.32     0.294989     0.563830    20.614250
       319.95     0.326069     0.559360    20.368737
       323.57     0.359538     0.554824    20.118342
       327.20     0.395506     0.550220    19.862804
       330.83     0.434085     0.545542    19.601834
       334.45     0.475389     0.540788    19.335121
       338.08     0.519532     0.535951    19.062322
       341.71     0.566632     0.531028    18.783058
       345.33     0.616808     0.526013    18.496912
       348.96     0.670180     0.520899    18.203422
       352.59     0.726872     0.515680    17.902073
       356.21     0.787011     0.510348    17.592289
       359.84     0.850725     0.504893    17.273421
       363.47     0.918148     0.499308    16.944738
       367.09     0.989417     0.493579    16.605407
       370.72     1.064673     0.487694    16.254474
       374.35     1.144061     0.481639    15.890840
       377.97     1.227735     0.475396    15.513224
       381.60     1.315852     0.468945    15.120127
       385.23     1.408576     0.462263    14.709765
       388.86     1.506082     0.455320    14.280002
       392.48     1.608550     0.448080    13.828234
       396.11     1.716171     0.440502    13.351241
       399.74     1.829146     0.432529    12.844964
       403.36     1.947689     0.424090    12.304171
       406.99     2.072025     0.415093    11.721922
       410.62     2.202394     0.405406    11.088697
       414.24     2.339051     0.394843    10.390838
       417.87     2.482269     0.383119     9.607561
       421.50     2.632337     0.369759     8.704485
       425.12     2.789567     0.353866     7.617051
